#  E (eV)   dos(E)     Int dos(E) EFermi =   -2.188 eV
  -4.000  0.8034E+01  0.5833E+02
  -3.950  0.7567E+01  0.5871E+02
  -3.900  0.7285E+01  0.5911E+02
  -3.850  0.8732E+01  0.5951E+02
  -3.800  0.9610E+01  0.6000E+02
  -3.750  0.1038E+02  0.6063E+02
  -3.700  0.7115E+01  0.6116E+02
  -3.650  0.1120E+02  0.6165E+02
  -3.600  0.1378E+02  0.6226E+02
  -3.550  0.1530E+02  0.6312E+02
  -3.500  0.1575E+02  0.6393E+02
  -3.450  0.1340E+02  0.6471E+02
  -3.400  0.1280E+02  0.6547E+02
  -3.350  0.1323E+02  0.6636E+02
  -3.300  0.1234E+02  0.6705E+02
  -3.250  0.9575E+01  0.6751E+02
  -3.200  0.9342E+01  0.6802E+02
  -3.150  0.1061E+02  0.6851E+02
  -3.100  0.1125E+02  0.6909E+02
  -3.050  0.6990E+01  0.6985E+02
  -3.000  0.1399E+02  0.7039E+02
  -2.950  0.1332E+02  0.7128E+02
  -2.900  0.1842E+02  0.7193E+02
  -2.850  0.6855E+01  0.7300E+02
  -2.800  0.0000E+00  0.7300E+02
  -2.750  0.0000E+00  0.7300E+02
  -2.700  0.2449E+02  0.7320E+02
  -2.650  0.2892E+01  0.7374E+02
  -2.600  0.3049E+01  0.7385E+02
  -2.550  0.1977E+02  0.7470E+02
  -2.500  0.6300E+01  0.7512E+02
  -2.450  0.9245E+01  0.7563E+02
  -2.400  0.9942E+01  0.7610E+02
  -2.350  0.5427E+01  0.7663E+02
  -2.300  0.1014E+02  0.7708E+02
  -2.250  0.4409E+01  0.7738E+02
  -2.200  0.1057E+02  0.7787E+02
  -2.150  0.6285E+01  0.7842E+02
  -2.100  0.4716E+01  0.7869E+02
  -2.050  0.1161E+01  0.7885E+02
  -2.000  0.1002E+01  0.7890E+02
  -1.950  0.1031E+01  0.7895E+02
  -1.900  0.0000E+00  0.7900E+02
  -1.850  0.4256E+01  0.7911E+02
  -1.800  0.1178E+02  0.7969E+02
  -1.750  0.0000E+00  0.8000E+02
  -1.700  0.5860E+01  0.8015E+02
  -1.650  0.7552E+01  0.8070E+02
  -1.600  0.7425E+01  0.8113E+02
  -1.550  0.4701E+01  0.8142E+02
  -1.500  0.3699E+01  0.8163E+02
  -1.450  0.3116E+01  0.8180E+02
  -1.400  0.1486E+01  0.8194E+02
  -1.350  0.0000E+00  0.8200E+02
  -1.300  0.0000E+00  0.8200E+02
  -1.250  0.0000E+00  0.8200E+02
  -1.200  0.0000E+00  0.8200E+02
  -1.150  0.0000E+00  0.8200E+02
  -1.100  0.0000E+00  0.8200E+02
  -1.050  0.0000E+00  0.8200E+02
  -1.000  0.0000E+00  0.8200E+02
  -0.950  0.0000E+00  0.8200E+02
  -0.900  0.0000E+00  0.8200E+02
  -0.850  0.1702E+01  0.8207E+02
  -0.800  0.3681E+01  0.8219E+02
  -0.750  0.3900E+01  0.8238E+02
  -0.700  0.4675E+01  0.8259E+02
  -0.650  0.6453E+01  0.8286E+02
  -0.600  0.1376E+02  0.8335E+02
  -0.550  0.1016E+02  0.8381E+02
  -0.500  0.6266E+01  0.8430E+02
  -0.450  0.9829E+01  0.8460E+02
  -0.400  0.7299E+01  0.8504E+02
  -0.350  0.8415E+01  0.8552E+02
  -0.300  0.6763E+01  0.8589E+02
  -0.250  0.5948E+01  0.8621E+02
  -0.200  0.5430E+01  0.8649E+02
  -0.150  0.5089E+01  0.8675E+02
  -0.100  0.7456E+01  0.8709E+02
  -0.050  0.8948E+01  0.8748E+02
   0.000  0.9487E+01  0.8795E+02
   0.050  0.1165E+02  0.8845E+02
   0.100  0.1413E+02  0.8915E+02
   0.150  0.1225E+02  0.8982E+02
   0.200  0.1285E+02  0.9048E+02
   0.250  0.1053E+02  0.9104E+02
   0.300  0.1031E+02  0.9160E+02
   0.350  0.1144E+02  0.9211E+02
   0.400  0.8234E+01  0.9257E+02
   0.450  0.7232E+01  0.9295E+02
   0.500  0.6631E+01  0.9333E+02
   0.550  0.3740E+01  0.9358E+02
   0.600  0.2442E+01  0.9374E+02
   0.650  0.1905E+01  0.9384E+02
   0.700  0.1506E+01  0.9393E+02
   0.750  0.1319E+01  0.9400E+02
   0.800  0.0000E+00  0.9400E+02
   0.850  0.0000E+00  0.9400E+02
   0.900  0.0000E+00  0.9400E+02
   0.950  0.0000E+00  0.9400E+02
   1.000  0.0000E+00  0.9400E+02
   1.050  0.0000E+00  0.9400E+02
   1.100  0.0000E+00  0.9400E+02
   1.150  0.0000E+00  0.9400E+02
   1.200  0.0000E+00  0.9400E+02
   1.250  0.0000E+00  0.9400E+02
   1.300  0.0000E+00  0.9400E+02
   1.350  0.0000E+00  0.9400E+02
   1.400  0.0000E+00  0.9400E+02
   1.450  0.0000E+00  0.9400E+02
   1.500  0.0000E+00  0.9400E+02
   1.550  0.0000E+00  0.9400E+02
   1.600  0.0000E+00  0.9400E+02
   1.650  0.0000E+00  0.9400E+02
   1.700  0.0000E+00  0.9400E+02
   1.750  0.0000E+00  0.9400E+02
   1.800  0.0000E+00  0.9400E+02
   1.850  0.0000E+00  0.9400E+02
   1.900  0.0000E+00  0.9400E+02
   1.950  0.0000E+00  0.9400E+02
   2.000  0.0000E+00  0.9400E+02
   2.050  0.0000E+00  0.9400E+02
   2.100  0.0000E+00  0.9400E+02
   2.150  0.0000E+00  0.9400E+02
   2.200  0.0000E+00  0.9400E+02
   2.250  0.0000E+00  0.9400E+02
   2.300  0.0000E+00  0.9400E+02
   2.350  0.0000E+00  0.9400E+02
   2.400  0.0000E+00  0.9400E+02
   2.450  0.0000E+00  0.9400E+02
   2.500  0.0000E+00  0.9400E+02
   2.550  0.0000E+00  0.9400E+02
   2.600  0.0000E+00  0.9400E+02
   2.650  0.0000E+00  0.9400E+02
   2.700  0.0000E+00  0.9400E+02
   2.750  0.0000E+00  0.9400E+02
   2.800  0.0000E+00  0.9400E+02
   2.850  0.0000E+00  0.9400E+02
   2.900  0.0000E+00  0.9400E+02
   2.950  0.0000E+00  0.9400E+02
   3.000  0.0000E+00  0.9400E+02
   3.050  0.0000E+00  0.9400E+02
   3.100  0.0000E+00  0.9400E+02
   3.150  0.0000E+00  0.9400E+02
   3.200  0.0000E+00  0.9400E+02
   3.250  0.0000E+00  0.9400E+02
   3.300  0.0000E+00  0.9400E+02
   3.350  0.0000E+00  0.9400E+02
   3.400  0.0000E+00  0.9400E+02
   3.450  0.0000E+00  0.9400E+02
   3.500  0.0000E+00  0.9400E+02
   3.550  0.0000E+00  0.9400E+02
   3.600  0.0000E+00  0.9400E+02
   3.650  0.0000E+00  0.9400E+02
   3.700  0.0000E+00  0.9400E+02
   3.750  0.0000E+00  0.9400E+02
   3.800  0.0000E+00  0.9400E+02
   3.850  0.0000E+00  0.9400E+02
   3.900  0.0000E+00  0.9400E+02
   3.950  0.0000E+00  0.9400E+02
   4.000  0.0000E+00  0.9400E+02
