# E (eV) pdos(E) 
 -7.000  0.431E+00
 -6.950  0.485E+00
 -6.900  0.469E+00
 -6.850  0.484E+00
 -6.800  0.521E+00
 -6.750  0.564E+00
 -6.700  0.122E+01
 -6.650  0.192E+01
 -6.600  0.136E+01
 -6.550  0.128E+01
 -6.500  0.175E+01
 -6.450  0.775E+00
 -6.400  0.597E+00
 -6.350  0.540E+00
 -6.300  0.515E+00
 -6.250  0.493E+00
 -6.200  0.488E+00
 -6.150  0.531E+00
 -6.100  0.565E+00
 -6.050  0.570E+01
 -6.000  0.202E+01
 -5.950  0.158E+01
 -5.900  0.139E+01
 -5.850  0.147E+01
 -5.800  0.170E+01
 -5.750  0.279E+01
 -5.700  0.205E+01
 -5.650  0.223E+01
 -5.600  0.290E+00
 -5.550  0.287E+00
 -5.500  0.166E+01
 -5.450  0.170E+01
 -5.400  0.201E+01
 -5.350  0.173E+01
 -5.300  0.175E+01
 -5.250  0.159E+01
 -5.200  0.170E+01
 -5.150  0.205E+01
 -5.100  0.275E+01
 -5.050  0.198E+01
 -5.000  0.172E+01
 -4.950  0.115E+01
 -4.900  0.101E+01
 -4.850  0.947E+00
 -4.800  0.812E+00
 -4.750  0.483E+00
 -4.700  0.597E+00
 -4.650  0.722E+00
 -4.600  0.000E+00
 -4.550  0.000E+00
 -4.500  0.741E+00
 -4.450  0.132E+01
 -4.400  0.223E+01
 -4.350  0.178E+01
 -4.300  0.166E+01
 -4.250  0.187E+01
 -4.200  0.290E+01
 -4.150  0.791E+01
 -4.100  0.213E+01
 -4.050  0.144E+01
 -4.000  0.135E+01
 -3.950  0.144E+01
 -3.900  0.123E+01
 -3.850  0.104E+01
 -3.800  0.963E+00
 -3.750  0.114E+01
 -3.700  0.117E+01
 -3.650  0.762E+00
 -3.600  0.614E+00
 -3.550  0.848E+00
 -3.500  0.720E+00
 -3.450  0.746E+00
 -3.400  0.681E+00
 -3.350  0.736E+00
 -3.300  0.951E+00
 -3.250  0.145E+01
 -3.200  0.128E+01
 -3.150  0.110E+01
 -3.100  0.102E+01
 -3.050  0.980E+00
 -3.000  0.953E+00
 -2.950  0.940E+00
 -2.900  0.842E+00
 -2.850  0.837E+00
 -2.800  0.664E+00
 -2.750  0.672E+00
 -2.700  0.679E+00
 -2.650  0.753E+00
 -2.600  0.119E+01
 -2.550  0.125E+01
 -2.500  0.103E+01
 -2.450  0.101E+01
 -2.400  0.114E+01
 -2.350  0.732E+00
 -2.300  0.750E+00
 -2.250  0.852E+00
 -2.200  0.769E+00
 -2.150  0.496E+00
 -2.100  0.600E+00
 -2.050  0.664E+00
 -2.000  0.123E+01
 -1.950  0.721E+00
 -1.900  0.000E+00
 -1.850  0.000E+00
 -1.800  0.000E+00
 -1.750  0.000E+00
 -1.700  0.000E+00
 -1.650  0.000E+00
 -1.600  0.000E+00
 -1.550  0.000E+00
 -1.500  0.000E+00
 -1.450  0.000E+00
 -1.400  0.000E+00
 -1.350  0.000E+00
 -1.300  0.000E+00
 -1.250  0.000E+00
 -1.200  0.000E+00
 -1.150  0.000E+00
 -1.100  0.000E+00
 -1.050  0.000E+00
 -1.000  0.000E+00
 -0.950  0.000E+00
 -0.900  0.000E+00
 -0.850  0.000E+00
 -0.800  0.000E+00
 -0.750  0.000E+00
 -0.700  0.000E+00
 -0.650  0.000E+00
 -0.600  0.000E+00
 -0.550  0.000E+00
 -0.500  0.000E+00
 -0.450  0.000E+00
 -0.400  0.000E+00
 -0.350  0.000E+00
 -0.300  0.000E+00
 -0.250  0.000E+00
 -0.200  0.575E+00
 -0.150  0.519E+00
 -0.100  0.847E+00
 -0.050  0.157E+01
  0.000  0.220E+01
  0.050  0.180E+01
  0.100  0.814E+00
  0.150  0.661E+00
  0.200  0.692E+00
  0.250  0.835E+00
  0.300  0.875E+00
  0.350  0.938E+00
  0.400  0.105E+01
  0.450  0.120E+01
  0.500  0.143E+01
  0.550  0.193E+01
  0.600  0.152E+01
  0.650  0.147E+01
  0.700  0.142E+01
  0.750  0.124E+01
  0.800  0.898E+00
  0.850  0.765E+00
  0.900  0.650E+00
  0.950  0.569E+00
  1.000  0.161E+00
  1.050  0.116E+00
  1.100  0.103E+00
  1.150  0.875E-01
  1.200  0.713E-01
  1.250  0.613E-01
  1.300  0.000E+00
  1.350  0.000E+00
  1.400  0.000E+00
  1.450  0.000E+00
  1.500  0.000E+00
  1.550  0.000E+00
  1.600  0.000E+00
  1.650  0.000E+00
  1.700  0.000E+00
  1.750  0.000E+00
  1.800  0.000E+00
  1.850  0.000E+00
  1.900  0.000E+00
  1.950  0.000E+00
  2.000  0.000E+00
  2.050  0.000E+00
  2.100  0.000E+00
  2.150  0.000E+00
  2.200  0.000E+00
  2.250  0.000E+00
  2.300  0.000E+00
  2.350  0.000E+00
  2.400  0.000E+00
  2.450  0.000E+00
  2.500  0.000E+00
  2.550  0.000E+00
  2.600  0.000E+00
  2.650  0.000E+00
  2.700  0.000E+00
  2.750  0.000E+00
  2.800  0.000E+00
  2.850  0.000E+00
  2.900  0.000E+00
  2.950  0.000E+00
  3.000  0.000E+00
  3.050  0.000E+00
  3.100  0.000E+00
  3.150  0.000E+00
  3.200  0.000E+00
  3.250  0.000E+00
  3.300  0.000E+00
  3.350  0.111E-03
  3.400  0.248E-03
  3.450  0.222E-03
  3.500  0.362E-01
  3.550  0.277E-01
  3.600  0.228E-01
  3.650  0.199E-01
  3.700  0.191E-01
  3.750  0.175E-01
  3.800  0.162E-01
  3.850  0.158E-01
  3.900  0.156E-01
  3.950  0.151E-01
  4.000  0.146E-01
  4.050  0.144E-01
  4.100  0.144E-01
  4.150  0.144E-01
  4.200  0.150E-01
  4.250  0.159E-01
  4.300  0.155E-01
  4.350  0.161E-01
  4.400  0.162E-01
  4.450  0.190E-01
  4.500  0.181E-01
  4.550  0.188E-01
  4.600  0.228E-01
  4.650  0.383E-01
  4.700  0.172E-01
  4.750  0.809E-02
  4.800  0.248E-02
  4.850  0.240E-02
  4.900  0.267E-02
  4.950  0.303E-02
  5.000  0.343E-02
  5.050  0.398E-02
  5.100  0.456E-02
  5.150  0.569E-02
  5.200  0.656E-02
  5.250  0.949E-02
  5.300  0.786E-02
  5.350  0.840E-02
  5.400  0.693E-02
  5.450  0.682E-02
  5.500  0.727E-02
  5.550  0.587E-02
  5.600  0.444E-02
  5.650  0.368E-02
  5.700  0.261E-02
  5.750  0.215E-02
  5.800  0.175E-02
  5.850  0.158E-02
  5.900  0.134E-02
  5.950  0.121E-02
  6.000  0.122E-02
  6.050  0.125E-02
