# E (eV)  dos(E)    pdos(E)
  -4.000  0.596E+01  0.590E+01
  -3.950  0.588E+01  0.582E+01
  -3.900  0.286E+01  0.283E+01
  -3.850  0.324E+01  0.321E+01
  -3.800  0.517E+01  0.511E+01
  -3.750  0.486E+01  0.479E+01
  -3.700  0.640E+01  0.631E+01
  -3.650  0.511E+01  0.504E+01
  -3.600  0.537E+01  0.530E+01
  -3.550  0.838E+01  0.829E+01
  -3.500  0.639E+01  0.632E+01
  -3.450  0.420E+01  0.415E+01
  -3.400  0.366E+01  0.362E+01
  -3.350  0.191E+02  0.189E+02
  -3.300  0.145E+02  0.144E+02
  -3.250  0.105E+02  0.104E+02
  -3.200  0.143E+02  0.142E+02
  -3.150  0.222E+02  0.219E+02
  -3.100  0.418E+02  0.413E+02
  -3.050  0.108E+02  0.107E+02
  -3.000  0.106E+02  0.105E+02
  -2.950  0.157E+02  0.156E+02
  -2.900  0.125E+02  0.124E+02
  -2.850  0.212E+02  0.211E+02
  -2.800  0.110E+02  0.109E+02
  -2.750  0.956E+01  0.947E+01
  -2.700  0.117E+02  0.116E+02
  -2.650  0.125E+02  0.124E+02
  -2.600  0.131E+02  0.130E+02
  -2.550  0.112E+02  0.111E+02
  -2.500  0.101E+02  0.997E+01
  -2.450  0.113E+02  0.112E+02
  -2.400  0.129E+02  0.127E+02
  -2.350  0.821E+01  0.810E+01
  -2.300  0.101E+02  0.992E+01
  -2.250  0.901E+01  0.887E+01
  -2.200  0.821E+01  0.808E+01
  -2.150  0.120E+02  0.119E+02
  -2.100  0.207E+02  0.204E+02
  -2.050  0.106E+02  0.105E+02
  -2.000  0.728E+01  0.717E+01
  -1.950  0.905E+01  0.892E+01
  -1.900  0.164E+02  0.162E+02
  -1.850  0.120E+02  0.119E+02
  -1.800  0.389E+01  0.384E+01
  -1.750  0.261E+01  0.258E+01
  -1.700  0.270E+01  0.267E+01
  -1.650  0.398E+01  0.393E+01
  -1.600  0.345E+01  0.340E+01
  -1.550  0.433E+01  0.426E+01
  -1.500  0.653E+01  0.643E+01
  -1.450  0.967E+01  0.952E+01
  -1.400  0.306E+02  0.302E+02
  -1.350  0.105E+02  0.104E+02
  -1.300  0.587E+01  0.578E+01
  -1.250  0.598E+01  0.589E+01
  -1.200  0.973E+01  0.960E+01
  -1.150  0.113E+02  0.111E+02
  -1.100  0.977E+01  0.965E+01
  -1.050  0.112E+02  0.111E+02
  -1.000  0.925E+01  0.914E+01
  -0.950  0.973E+01  0.962E+01
  -0.900  0.593E+01  0.586E+01
  -0.850  0.698E+01  0.689E+01
  -0.800  0.731E+01  0.721E+01
  -0.750  0.738E+01  0.727E+01
  -0.700  0.595E+01  0.587E+01
  -0.650  0.576E+01  0.569E+01
  -0.600  0.852E+01  0.839E+01
  -0.550  0.862E+01  0.851E+01
  -0.500  0.963E+01  0.949E+01
  -0.450  0.105E+02  0.103E+02
  -0.400  0.910E+01  0.897E+01
  -0.350  0.507E+01  0.500E+01
  -0.300  0.696E+01  0.687E+01
  -0.250  0.319E+01  0.315E+01
  -0.200  0.376E+01  0.372E+01
  -0.150  0.510E+01  0.505E+01
  -0.100  0.533E+01  0.528E+01
  -0.050  0.599E+01  0.592E+01
   0.000  0.422E+01  0.418E+01
   0.050  0.373E+01  0.369E+01
   0.100  0.235E+01  0.233E+01
   0.150  0.945E+01  0.934E+01
   0.200  0.112E+02  0.110E+02
   0.250  0.156E+02  0.154E+02
   0.300  0.132E+02  0.130E+02
   0.350  0.874E+01  0.863E+01
   0.400  0.122E+02  0.121E+02
   0.450  0.178E+02  0.177E+02
   0.500  0.165E+02  0.164E+02
   0.550  0.160E+02  0.159E+02
   0.600  0.119E+02  0.118E+02
   0.650  0.353E+02  0.352E+02
   0.700  0.262E+02  0.261E+02
   0.750  0.844E+01  0.838E+01
   0.800  0.745E+01  0.741E+01
   0.850  0.126E+02  0.125E+02
   0.900  0.236E+02  0.235E+02
   0.950  0.133E+02  0.132E+02
   1.000  0.201E+02  0.199E+02
   1.050  0.146E+02  0.145E+02
   1.100  0.663E+01  0.659E+01
   1.150  0.134E+02  0.134E+02
   1.200  0.764E+01  0.760E+01
   1.250  0.000E+00  0.000E+00
