# E (eV)  dosup(E)   dosdw(E)  pdosup(E)  pdosdw(E)
  -4.000  0.157E+01  0.364E+01  0.149E+01  0.385E+01
  -3.950  0.724E+01  0.991E+01  0.777E+01  0.968E+01
  -3.900  0.156E+01  0.776E+00  0.157E+01  0.925E+00
  -3.850  0.173E+01  0.165E+01  0.179E+01  0.169E+01
  -3.800  0.283E+01  0.158E+01  0.264E+01  0.149E+01
  -3.750  0.209E+01  0.171E+01  0.179E+01  0.152E+01
  -3.700  0.258E+01  0.359E+01  0.208E+01  0.287E+01
  -3.650  0.241E+01  0.260E+01  0.197E+01  0.212E+01
  -3.600  0.249E+01  0.241E+01  0.209E+01  0.197E+01
  -3.550  0.341E+01  0.283E+01  0.313E+01  0.243E+01
  -3.500  0.406E+01  0.446E+01  0.386E+01  0.416E+01
  -3.450  0.187E+01  0.208E+01  0.170E+01  0.189E+01
  -3.400  0.176E+01  0.177E+01  0.159E+01  0.160E+01
  -3.350  0.665E+01  0.175E+01  0.580E+01  0.157E+01
  -3.300  0.884E+01  0.564E+01  0.827E+01  0.517E+01
  -3.250  0.494E+01  0.577E+01  0.410E+01  0.501E+01
  -3.200  0.634E+01  0.542E+01  0.533E+01  0.452E+01
  -3.150  0.105E+02  0.112E+02  0.942E+01  0.101E+02
  -3.100  0.138E+02  0.161E+02  0.100E+02  0.133E+02
  -3.050  0.444E+01  0.163E+02  0.429E+01  0.114E+02
  -3.000  0.695E+01  0.439E+01  0.661E+01  0.434E+01
  -2.950  0.610E+01  0.118E+02  0.634E+01  0.117E+02
  -2.900  0.597E+01  0.576E+01  0.636E+01  0.588E+01
  -2.850  0.514E+01  0.620E+01  0.578E+01  0.646E+01
  -2.800  0.446E+01  0.415E+01  0.378E+01  0.468E+01
  -2.750  0.402E+01  0.559E+01  0.340E+01  0.460E+01
  -2.700  0.968E+01  0.462E+01  0.969E+01  0.384E+01
  -2.650  0.542E+01  0.644E+01  0.492E+01  0.599E+01
  -2.600  0.649E+01  0.538E+01  0.606E+01  0.495E+01
  -2.550  0.358E+01  0.735E+01  0.321E+01  0.689E+01
  -2.500  0.418E+01  0.383E+01  0.366E+01  0.339E+01
  -2.450  0.456E+01  0.767E+01  0.391E+01  0.683E+01
  -2.400  0.629E+01  0.541E+01  0.543E+01  0.461E+01
  -2.350  0.430E+01  0.422E+01  0.393E+01  0.385E+01
  -2.300  0.517E+01  0.492E+01  0.467E+01  0.449E+01
  -2.250  0.417E+01  0.453E+01  0.383E+01  0.408E+01
  -2.200  0.401E+01  0.400E+01  0.351E+01  0.367E+01
  -2.150  0.504E+01  0.470E+01  0.402E+01  0.388E+01
  -2.100  0.120E+02  0.811E+01  0.753E+01  0.585E+01
  -2.050  0.461E+01  0.469E+01  0.422E+01  0.421E+01
  -2.000  0.317E+01  0.436E+01  0.282E+01  0.396E+01
  -1.950  0.405E+01  0.335E+01  0.363E+01  0.302E+01
  -1.900  0.944E+01  0.419E+01  0.978E+01  0.380E+01
  -1.850  0.301E+01  0.582E+01  0.311E+01  0.565E+01
  -1.800  0.142E+01  0.358E+01  0.152E+01  0.335E+01
  -1.750  0.127E+01  0.125E+01  0.137E+01  0.134E+01
  -1.700  0.117E+01  0.119E+01  0.126E+01  0.127E+01
  -1.650  0.142E+01  0.135E+01  0.143E+01  0.138E+01
  -1.600  0.210E+01  0.199E+01  0.166E+01  0.153E+01
  -1.550  0.318E+01  0.170E+01  0.288E+01  0.144E+01
  -1.500  0.334E+01  0.283E+01  0.330E+01  0.267E+01
  -1.450  0.338E+01  0.456E+01  0.312E+01  0.446E+01
  -1.400  0.813E+01  0.897E+01  0.630E+01  0.585E+01
  -1.350  0.314E+01  0.869E+01  0.296E+01  0.840E+01
  -1.300  0.238E+01  0.241E+01  0.224E+01  0.224E+01
  -1.250  0.273E+01  0.237E+01  0.262E+01  0.224E+01
  -1.200  0.504E+01  0.457E+01  0.461E+01  0.411E+01
  -1.150  0.557E+01  0.124E+02  0.526E+01  0.120E+02
  -1.100  0.480E+01  0.483E+01  0.461E+01  0.465E+01
  -1.050  0.635E+01  0.463E+01  0.624E+01  0.451E+01
  -1.000  0.346E+01  0.515E+01  0.345E+01  0.503E+01
  -0.950  0.436E+01  0.108E+02  0.447E+01  0.114E+02
  -0.900  0.288E+01  0.319E+01  0.316E+01  0.342E+01
  -0.850  0.593E+01  0.269E+01  0.674E+01  0.301E+01
  -0.800  0.356E+01  0.357E+01  0.412E+01  0.397E+01
  -0.750  0.384E+01  0.350E+01  0.396E+01  0.403E+01
  -0.700  0.381E+01  0.356E+01  0.400E+01  0.392E+01
  -0.650  0.353E+01  0.330E+01  0.378E+01  0.341E+01
  -0.600  0.414E+01  0.335E+01  0.457E+01  0.346E+01
  -0.550  0.423E+01  0.285E+01  0.466E+01  0.307E+01
  -0.500  0.435E+01  0.438E+01  0.464E+01  0.494E+01
  -0.450  0.618E+01  0.379E+01  0.669E+01  0.419E+01
  -0.400  0.466E+01  0.433E+01  0.479E+01  0.488E+01
  -0.350  0.331E+01  0.493E+01  0.318E+01  0.562E+01
  -0.300  0.145E+01  0.665E+01  0.143E+01  0.713E+01
  -0.250  0.177E+01  0.121E+01  0.175E+01  0.120E+01
  -0.200  0.222E+01  0.132E+01  0.220E+01  0.130E+01
  -0.150  0.300E+01  0.180E+01  0.297E+01  0.177E+01
  -0.100  0.302E+01  0.243E+01  0.299E+01  0.240E+01
  -0.050  0.208E+01  0.377E+01  0.206E+01  0.372E+01
   0.000  0.132E+01  0.318E+01  0.131E+01  0.315E+01
   0.050  0.717E+00  0.255E+01  0.697E+00  0.253E+01
   0.100  0.147E+01  0.565E+00  0.146E+01  0.558E+00
   0.150  0.675E+01  0.106E+00  0.737E+01  0.105E+00
   0.200  0.119E+02  0.642E+00  0.140E+02  0.614E+00
   0.250  0.758E+01  0.804E+01  0.769E+01  0.863E+01
   0.300  0.422E+01  0.116E+02  0.395E+01  0.135E+02
   0.350  0.114E+02  0.107E+02  0.109E+02  0.124E+02
   0.400  0.590E+01  0.692E+01  0.552E+01  0.633E+01
   0.450  0.584E+01  0.296E+01  0.567E+01  0.277E+01
   0.500  0.757E+01  0.522E+01  0.738E+01  0.491E+01
   0.550  0.839E+01  0.474E+01  0.829E+01  0.447E+01
   0.600  0.111E+02  0.404E+01  0.108E+02  0.380E+01
   0.650  0.300E+02  0.105E+02  0.304E+02  0.103E+02
   0.700  0.191E+02  0.124E+02  0.206E+02  0.123E+02
   0.750  0.212E+01  0.223E+01  0.212E+01  0.220E+01
   0.800  0.715E+00  0.660E+01  0.690E+00  0.687E+01
   0.850  0.479E+01  0.799E+01  0.547E+01  0.836E+01
   0.900  0.577E+01  0.281E+02  0.612E+01  0.295E+02
   0.950  0.785E+01  0.223E+02  0.768E+01  0.263E+02
   1.000  0.699E+01  0.677E+01  0.670E+01  0.680E+01
   1.050  0.335E+01  0.878E+01  0.333E+01  0.843E+01
   1.100  0.614E+01  0.383E+01  0.611E+01  0.381E+01
   1.150  0.608E+01  0.593E+01  0.605E+01  0.590E+01
   1.200  0.000E+00  0.659E+01  0.000E+00  0.656E+01
   1.250  0.000E+00  0.000E+00  0.000E+00  0.000E+00
