# E (eV)  dos(E)    pdos(E)
  -4.000  0.823E+01  0.814E+01
  -3.950  0.549E+01  0.542E+01
  -3.900  0.533E+01  0.526E+01
  -3.850  0.113E+02  0.111E+02
  -3.800  0.199E+02  0.196E+02
  -3.750  0.226E+02  0.224E+02
  -3.700  0.187E+02  0.185E+02
  -3.650  0.158E+02  0.156E+02
  -3.600  0.185E+02  0.183E+02
  -3.550  0.221E+02  0.219E+02
  -3.500  0.198E+02  0.196E+02
  -3.450  0.148E+02  0.146E+02
  -3.400  0.137E+02  0.136E+02
  -3.350  0.161E+02  0.159E+02
  -3.300  0.138E+02  0.136E+02
  -3.250  0.900E+01  0.889E+01
  -3.200  0.756E+01  0.746E+01
  -3.150  0.542E+01  0.535E+01
  -3.100  0.314E+01  0.310E+01
  -3.050  0.329E+01  0.325E+01
  -3.000  0.531E+01  0.523E+01
  -2.950  0.742E+01  0.730E+01
  -2.900  0.745E+01  0.734E+01
  -2.850  0.834E+01  0.822E+01
  -2.800  0.113E+02  0.112E+02
  -2.750  0.108E+02  0.107E+02
  -2.700  0.724E+01  0.713E+01
  -2.650  0.578E+01  0.569E+01
  -2.600  0.621E+01  0.611E+01
  -2.550  0.854E+01  0.842E+01
  -2.500  0.124E+02  0.123E+02
  -2.450  0.160E+02  0.158E+02
  -2.400  0.162E+02  0.160E+02
  -2.350  0.111E+02  0.110E+02
  -2.300  0.658E+01  0.649E+01
  -2.250  0.605E+01  0.597E+01
  -2.200  0.601E+01  0.594E+01
  -2.150  0.596E+01  0.590E+01
  -2.100  0.534E+01  0.529E+01
  -2.050  0.345E+01  0.341E+01
  -2.000  0.305E+01  0.301E+01
  -1.950  0.378E+01  0.372E+01
  -1.900  0.475E+01  0.468E+01
  -1.850  0.787E+01  0.776E+01
  -1.800  0.122E+02  0.120E+02
  -1.750  0.149E+02  0.147E+02
  -1.700  0.117E+02  0.116E+02
  -1.650  0.737E+01  0.728E+01
  -1.600  0.807E+01  0.796E+01
  -1.550  0.119E+02  0.118E+02
  -1.500  0.144E+02  0.142E+02
  -1.450  0.121E+02  0.120E+02
  -1.400  0.996E+01  0.985E+01
  -1.350  0.883E+01  0.874E+01
  -1.300  0.911E+01  0.902E+01
  -1.250  0.944E+01  0.933E+01
  -1.200  0.805E+01  0.794E+01
  -1.150  0.643E+01  0.633E+01
  -1.100  0.585E+01  0.575E+01
  -1.050  0.580E+01  0.570E+01
  -1.000  0.684E+01  0.673E+01
  -0.950  0.709E+01  0.698E+01
  -0.900  0.788E+01  0.777E+01
  -0.850  0.855E+01  0.841E+01
  -0.800  0.802E+01  0.788E+01
  -0.750  0.764E+01  0.749E+01
  -0.700  0.570E+01  0.560E+01
  -0.650  0.400E+01  0.394E+01
  -0.600  0.294E+01  0.289E+01
  -0.550  0.180E+01  0.178E+01
  -0.500  0.268E+01  0.265E+01
  -0.450  0.477E+01  0.472E+01
  -0.400  0.508E+01  0.503E+01
  -0.350  0.409E+01  0.404E+01
  -0.300  0.274E+01  0.270E+01
  -0.250  0.273E+01  0.269E+01
  -0.200  0.441E+01  0.435E+01
  -0.150  0.580E+01  0.572E+01
  -0.100  0.727E+01  0.718E+01
  -0.050  0.991E+01  0.977E+01
   0.000  0.122E+02  0.121E+02
   0.050  0.115E+02  0.113E+02
   0.100  0.113E+02  0.112E+02
   0.150  0.152E+02  0.150E+02
   0.200  0.178E+02  0.176E+02
   0.250  0.160E+02  0.158E+02
   0.300  0.128E+02  0.127E+02
   0.350  0.123E+02  0.122E+02
   0.400  0.171E+02  0.169E+02
   0.450  0.217E+02  0.216E+02
   0.500  0.188E+02  0.187E+02
   0.550  0.871E+01  0.867E+01
   0.600  0.362E+00  0.361E+00
   0.650 -0.106E+01 -0.105E+01
   0.700 -0.343E+00 -0.341E+00
   0.750 -0.518E-01 -0.514E-01
   0.800 -0.345E-02 -0.342E-02
   0.850 -0.838E-04 -0.832E-04
