#  E (eV)   dos(E)     Int dos(E) EFermi =   -0.846 eV
  -4.000  0.5079E+01  0.4996E+02
  -3.950  0.5817E+01  0.5023E+02
  -3.900  0.1581E+02  0.5095E+02
  -3.850  0.6220E+01  0.5171E+02
  -3.800  0.2591E+01  0.5189E+02
  -3.750  0.6096E+01  0.5205E+02
  -3.700  0.8651E+01  0.5249E+02
  -3.650  0.1296E+02  0.5341E+02
  -3.600  0.6244E+01  0.5373E+02
  -3.550  0.1200E+02  0.5428E+02
  -3.500  0.6150E+01  0.5484E+02
  -3.450  0.4344E+01  0.5508E+02
  -3.400  0.1465E+02  0.5546E+02
  -3.350  0.6181E+01  0.5584E+02
  -3.300  0.5278E+01  0.5613E+02
  -3.250  0.4840E+01  0.5638E+02
  -3.200  0.4037E+01  0.5660E+02
  -3.150  0.5175E+01  0.5681E+02
  -3.100  0.5243E+01  0.5706E+02
  -3.050  0.6780E+01  0.5734E+02
  -3.000  0.1259E+02  0.5776E+02
  -2.950  0.7851E+01  0.5830E+02
  -2.900  0.1671E+02  0.5890E+02
  -2.850  0.9610E+01  0.5949E+02
  -2.800  0.1215E+02  0.6004E+02
  -2.750  0.8093E+01  0.6050E+02
  -2.700  0.4004E+01  0.6074E+02
  -2.650  0.5283E+01  0.6097E+02
  -2.600  0.1406E+02  0.6157E+02
  -2.550  0.1047E+02  0.6211E+02
  -2.500  0.1099E+02  0.6264E+02
  -2.450  0.1467E+02  0.6326E+02
  -2.400  0.1461E+02  0.6412E+02
  -2.350  0.1108E+02  0.6460E+02
  -2.300  0.9289E+01  0.6642E+02
  -2.250  0.5580E+01  0.6676E+02
  -2.200  0.1140E+02  0.6709E+02
  -2.150  0.1681E+02  0.6793E+02
  -2.100  0.7733E+01  0.6841E+02
  -2.050  0.6941E+01  0.6876E+02
  -2.000  0.1232E+02  0.6932E+02
  -1.950  0.3724E+01  0.7021E+02
  -1.900  0.1546E+02  0.7064E+02
  -1.850  0.1445E+02  0.7141E+02
  -1.800  0.1907E+02  0.7218E+02
  -1.750  0.2118E+02  0.7323E+02
  -1.700  0.0000E+00  0.7400E+02
  -1.650  0.0000E+00  0.7400E+02
  -1.600  0.1714E+02  0.7422E+02
  -1.550  0.5233E+01  0.7460E+02
  -1.500  0.3922E+01  0.7482E+02
  -1.450  0.3196E+01  0.7500E+02
  -1.400  0.2716E+01  0.7515E+02
  -1.350  0.2409E+01  0.7527E+02
  -1.300  0.2162E+01  0.7539E+02
  -1.250  0.1964E+01  0.7549E+02
  -1.200  0.1806E+01  0.7558E+02
  -1.150  0.1692E+01  0.7567E+02
  -1.100  0.1620E+01  0.7575E+02
  -1.050  0.1614E+01  0.7584E+02
  -1.000  0.9665E+01  0.7673E+02
  -0.950  0.4990E+01  0.7712E+02
  -0.900  0.3926E+01  0.7734E+02
  -0.850  0.2768E+02  0.7785E+02
  -0.800  0.2349E+02  0.7921E+02
  -0.750  0.2254E+02  0.8035E+02
  -0.700  0.1228E+02  0.8139E+02
  -0.650  0.1040E+02  0.8185E+02
  -0.600  0.0000E+00  0.8200E+02
  -0.550  0.0000E+00  0.8200E+02
  -0.500  0.0000E+00  0.8200E+02
  -0.450  0.0000E+00  0.8200E+02
  -0.400  0.0000E+00  0.8200E+02
  -0.350  0.0000E+00  0.8200E+02
  -0.300  0.0000E+00  0.8200E+02
  -0.250  0.0000E+00  0.8200E+02
  -0.200  0.0000E+00  0.8200E+02
  -0.150  0.0000E+00  0.8200E+02
  -0.100  0.0000E+00  0.8200E+02
  -0.050  0.3227E+01  0.8214E+02
   0.000  0.3554E+01  0.8231E+02
   0.050  0.3970E+01  0.8249E+02
   0.100  0.8521E+01  0.8273E+02
   0.150  0.8884E+01  0.8321E+02
   0.200  0.1435E+02  0.8380E+02
   0.250  0.5219E+01  0.8425E+02
   0.300  0.4115E+01  0.8448E+02
   0.350  0.1417E+02  0.8500E+02
   0.400  0.7776E+01  0.8546E+02
   0.450  0.6541E+01  0.8581E+02
   0.500  0.5723E+01  0.8612E+02
   0.550  0.5176E+01  0.8639E+02
   0.600  0.4995E+01  0.8665E+02
   0.650  0.3395E+02  0.8695E+02
   0.700  0.1065E+02  0.8746E+02
   0.750  0.1280E+02  0.8804E+02
   0.800  0.1396E+02  0.8870E+02
   0.850  0.1673E+02  0.8960E+02
   0.900  0.1316E+02  0.9032E+02
   0.950  0.1338E+02  0.9106E+02
   1.000  0.8410E+01  0.9156E+02
   1.050  0.7604E+01  0.9196E+02
   1.100  0.7594E+01  0.9234E+02
   1.150  0.8768E+01  0.9273E+02
   1.200  0.8828E+01  0.9325E+02
   1.250  0.6558E+01  0.9363E+02
   1.300  0.3127E+01  0.9390E+02
   1.350  0.1221E+01  0.9399E+02
   1.400  0.0000E+00  0.9400E+02
   1.450  0.0000E+00  0.9400E+02
   1.500  0.0000E+00  0.9400E+02
   1.550  0.0000E+00  0.9400E+02
   1.600  0.0000E+00  0.9400E+02
   1.650  0.0000E+00  0.9400E+02
   1.700  0.0000E+00  0.9400E+02
   1.750  0.0000E+00  0.9400E+02
   1.800  0.0000E+00  0.9400E+02
   1.850  0.0000E+00  0.9400E+02
   1.900  0.0000E+00  0.9400E+02
   1.950  0.0000E+00  0.9400E+02
   2.000  0.0000E+00  0.9400E+02
   2.050  0.0000E+00  0.9400E+02
   2.100  0.0000E+00  0.9400E+02
   2.150  0.0000E+00  0.9400E+02
   2.200  0.0000E+00  0.9400E+02
   2.250  0.0000E+00  0.9400E+02
   2.300  0.0000E+00  0.9400E+02
   2.350  0.0000E+00  0.9400E+02
   2.400  0.0000E+00  0.9400E+02
   2.450  0.0000E+00  0.9400E+02
   2.500  0.0000E+00  0.9400E+02
   2.550  0.0000E+00  0.9400E+02
   2.600  0.0000E+00  0.9400E+02
   2.650  0.0000E+00  0.9400E+02
   2.700  0.0000E+00  0.9400E+02
   2.750  0.0000E+00  0.9400E+02
   2.800  0.0000E+00  0.9400E+02
   2.850  0.0000E+00  0.9400E+02
   2.900  0.0000E+00  0.9400E+02
   2.950  0.0000E+00  0.9400E+02
   3.000  0.0000E+00  0.9400E+02
   3.050  0.0000E+00  0.9400E+02
   3.100  0.0000E+00  0.9400E+02
   3.150  0.0000E+00  0.9400E+02
   3.200  0.0000E+00  0.9400E+02
   3.250  0.0000E+00  0.9400E+02
   3.300  0.0000E+00  0.9400E+02
   3.350  0.0000E+00  0.9400E+02
   3.400  0.0000E+00  0.9400E+02
   3.450  0.0000E+00  0.9400E+02
   3.500  0.0000E+00  0.9400E+02
   3.550  0.0000E+00  0.9400E+02
   3.600  0.0000E+00  0.9400E+02
   3.650  0.0000E+00  0.9400E+02
   3.700  0.0000E+00  0.9400E+02
   3.750  0.0000E+00  0.9400E+02
   3.800  0.0000E+00  0.9400E+02
   3.850  0.0000E+00  0.9400E+02
   3.900  0.0000E+00  0.9400E+02
   3.950  0.0000E+00  0.9400E+02
   4.000  0.0000E+00  0.9400E+02
