# E (eV)  dos(E)    pdos(E)
  -4.000  0.665E+01  0.661E+01
  -3.950  0.633E+01  0.630E+01
  -3.900  0.970E+01  0.964E+01
  -3.850  0.997E+01  0.991E+01
  -3.800  0.598E+01  0.595E+01
  -3.750  0.274E+01  0.273E+01
  -3.700  0.773E+01  0.770E+01
  -3.650  0.627E+02  0.623E+02
  -3.600  0.850E+01  0.844E+01
  -3.550  0.135E+02  0.134E+02
  -3.500  0.239E+02  0.237E+02
  -3.450  0.625E+01  0.621E+01
  -3.400  0.728E+01  0.724E+01
  -3.350  0.793E+01  0.789E+01
  -3.300  0.613E+01  0.610E+01
  -3.250  0.487E+01  0.484E+01
  -3.200  0.437E+01  0.435E+01
  -3.150  0.580E+01  0.576E+01
  -3.100  0.634E+01  0.630E+01
  -3.050  0.588E+01  0.585E+01
  -3.000  0.647E+01  0.643E+01
  -2.950  0.838E+01  0.832E+01
  -2.900  0.731E+01  0.727E+01
  -2.850  0.797E+01  0.792E+01
  -2.800  0.118E+02  0.117E+02
  -2.750  0.102E+02  0.101E+02
  -2.700  0.401E+01  0.399E+01
  -2.650  0.657E+01  0.654E+01
  -2.600  0.867E+01  0.863E+01
  -2.550  0.175E+02  0.174E+02
  -2.500  0.114E+02  0.113E+02
  -2.450  0.120E+02  0.119E+02
  -2.400  0.185E+02  0.184E+02
  -2.350  0.130E+02  0.129E+02
  -2.300  0.817E+01  0.813E+01
  -2.250  0.208E+02  0.207E+02
  -2.200  0.106E+02  0.105E+02
  -2.150  0.682E+01  0.678E+01
  -2.100  0.840E+01  0.836E+01
  -2.050  0.114E+02  0.114E+02
  -2.000  0.139E+02  0.139E+02
  -1.950  0.160E+02  0.159E+02
  -1.900  0.733E+01  0.730E+01
  -1.850  0.164E+02  0.163E+02
  -1.800  0.235E+02  0.234E+02
  -1.750  0.122E+02  0.121E+02
  -1.700  0.572E+01  0.570E+01
  -1.650  0.511E+01  0.508E+01
  -1.600  0.492E+01  0.489E+01
  -1.550  0.429E+01  0.427E+01
  -1.500  0.210E+01  0.209E+01
  -1.450  0.386E+01  0.384E+01
  -1.400  0.394E+01  0.391E+01
  -1.350  0.302E+01  0.300E+01
  -1.300  0.258E+01  0.256E+01
  -1.250  0.914E+01  0.911E+01
  -1.200  0.516E+01  0.514E+01
  -1.150  0.429E+01  0.427E+01
  -1.100  0.273E+01  0.272E+01
  -1.050  0.113E+02  0.112E+02
  -1.000  0.102E+02  0.101E+02
  -0.950  0.149E+02  0.149E+02
  -0.900  0.520E+01  0.518E+01
  -0.850  0.901E+00  0.896E+00
  -0.800  0.845E+00  0.841E+00
  -0.750  0.190E+02  0.189E+02
  -0.700  0.345E+01  0.343E+01
  -0.650  0.233E+01  0.232E+01
  -0.600  0.793E+01  0.788E+01
  -0.550  0.174E+02  0.173E+02
  -0.500  0.948E+01  0.943E+01
  -0.450  0.538E+01  0.535E+01
  -0.400  0.396E+01  0.394E+01
  -0.350  0.191E+01  0.190E+01
  -0.300  0.000E+00  0.000E+00
  -0.250  0.000E+00  0.000E+00
  -0.200  0.000E+00  0.000E+00
  -0.150  0.000E+00  0.000E+00
  -0.100  0.000E+00  0.000E+00
  -0.050  0.164E+01  0.161E+01
   0.000  0.335E+01  0.327E+01
   0.050  0.372E+01  0.364E+01
   0.100  0.602E+01  0.590E+01
   0.150  0.688E+01  0.675E+01
   0.200  0.113E+02  0.111E+02
   0.250  0.122E+02  0.120E+02
   0.300  0.751E+01  0.735E+01
   0.350  0.762E+01  0.745E+01
   0.400  0.947E+01  0.925E+01
   0.450  0.724E+01  0.708E+01
   0.500  0.617E+01  0.603E+01
   0.550  0.546E+01  0.535E+01
   0.600  0.749E+01  0.734E+01
   0.650  0.704E+01  0.690E+01
   0.700  0.810E+01  0.796E+01
   0.750  0.119E+02  0.116E+02
   0.800  0.153E+02  0.150E+02
   0.850  0.136E+02  0.134E+02
   0.900  0.172E+02  0.169E+02
   0.950  0.114E+02  0.112E+02
   1.000  0.100E+02  0.987E+01
   1.050  0.878E+01  0.863E+01
   1.100  0.800E+01  0.788E+01
   1.150  0.105E+02  0.104E+02
   1.200  0.752E+01  0.741E+01
   1.250  0.828E+01  0.817E+01
   1.300  0.395E+01  0.390E+01
   1.350  0.294E+01  0.290E+01
   1.400  0.911E+00  0.898E+00
   1.450  0.000E+00  0.000E+00
